PE IR                   SPECTRUM    ASCII       PEDS        1.60        
  -1
~SP.SP
22/02/22
09:53:28.00
22/02/22
09:53:28.00
Administrator

650.000000
4









SPECTRUM 100,CPU32 MAIN 00.02.7000 27-JANUARY-2006 11:32:41
MCT
MIR
OPTKBR
76073
1.000000

4.000000
STRONG
RATIO
SPECTRUM
MAGNITUDE
MIR INT SPHERE
DOUBLE

COMBINED


0


#HDR
-1
-1
#GR
CM-1
%T
0.00002384185791015625
0.0
4000.000000
-1.000000
3351
8
91.296815
83.849867
#DATA
4000.000000	85.983237 
3999.000000	85.942683 
3998.000000	85.901356 
3997.000000	85.884350 
3996.000000	85.925709 
3995.000000	85.945444 
3994.000000	85.928045 
3993.000000	85.871951 
3992.000000	85.816256 
3991.000000	85.803973 
3990.000000	85.839730 
3989.000000	85.885571 
3988.000000	85.899283 
3987.000000	85.875025 
3986.000000	85.846342 
3985.000000	85.851211 
3984.000000	85.894638 
3983.000000	85.945696 
3982.000000	85.969854 
3981.000000	85.962294 
3980.000000	85.946841 
3979.000000	85.945952 
3978.000000	85.958052 
3977.000000	85.963973 
3976.000000	85.949152 
3975.000000	85.915792 
3974.000000	85.876864 
3973.000000	85.843238 
3972.000000	85.817739 
3971.000000	85.798742 
3970.000000	85.787847 
3969.000000	85.792451 
3968.000000	85.819397 
3967.000000	85.865801 
3966.000000	85.917315 
3965.000000	85.956763 
3964.000000	85.973351 
3963.000000	85.965203 
3962.000000	85.937250 
3961.000000	85.899752 
3960.000000	85.866595 
3959.000000	85.850481 
3958.000000	85.858246 
3957.000000	85.888736 
3956.000000	85.933920 
3955.000000	85.981655 
3954.000000	86.019270 
3953.000000	86.037454 
3952.000000	86.031051 
3951.000000	85.998176 
3950.000000	85.942109 
3949.000000	85.875634 
3948.000000	85.820666 
3947.000000	85.797783 
3946.000000	85.812780 
3945.000000	85.852604 
3944.000000	85.893502 
3943.000000	85.916042 
3942.000000	85.919235 
3941.000000	85.921091 
3940.000000	85.939463 
3939.000000	85.970852 
3938.000000	85.995768 
3937.000000	86.002648 
3936.000000	86.000328 
3935.000000	86.004009 
3934.000000	86.013334 
3933.000000	86.013586 
3932.000000	85.997242 
3931.000000	85.976266 
3930.000000	85.966958 
3929.000000	85.968958 
3928.000000	85.968772 
3927.000000	85.956306 
3926.000000	85.933495 
3925.000000	85.908897 
3924.000000	85.887720 
3923.000000	85.870532 
3922.000000	85.855691 
3921.000000	85.840592 
3920.000000	85.824833 
3919.000000	85.813125 
3918.000000	85.810502 
3917.000000	85.814000 
3916.000000	85.813516 
3915.000000	85.805052 
3914.000000	85.797311 
3913.000000	85.802207 
3912.000000	85.822117 
3911.000000	85.845613 
3910.000000	85.856027 
3909.000000	85.843089 
3908.000000	85.809974 
3907.000000	85.770276 
3906.000000	85.736071 
3905.000000	85.710700 
3904.000000	85.692083 
3903.000000	85.686895 
3902.000000	85.714219 
3901.000000	85.778118 
3900.000000	85.846151 
3899.000000	85.873604 
3898.000000	85.850524 
3897.000000	85.812882 
3896.000000	85.802969 
3895.000000	85.833099 
3894.000000	85.889855 
3893.000000	85.950641 
3892.000000	85.990443 
3891.000000	85.981568 
3890.000000	85.917555 
3889.000000	85.833586 
3888.000000	85.778981 
3887.000000	85.778930 
3886.000000	85.822826 
3885.000000	85.875614 
3884.000000	85.914051 
3883.000000	85.946525 
3882.000000	85.987819 
3881.000000	86.031503 
3880.000000	86.054720 
3879.000000	86.047101 
3878.000000	86.026670 
3877.000000	86.011983 
3876.000000	85.997003 
3875.000000	85.962435 
3874.000000	85.900830 
3873.000000	85.836175 
3872.000000	85.813343 
3871.000000	85.851825 
3870.000000	85.912566 
3869.000000	85.935877 
3868.000000	85.923350 
3867.000000	85.932130 
3866.000000	85.992199 
3865.000000	86.072942 
3864.000000	86.115190 
3863.000000	86.085919 
3862.000000	86.005247 
3861.000000	85.917592 
3860.000000	85.859729 
3859.000000	85.849782 
3858.000000	85.886748 
3857.000000	85.950388 
3856.000000	86.004290 
3855.000000	86.020170 
3854.000000	86.017059 
3853.000000	86.027076 
3852.000000	86.042130 
3851.000000	86.056925 
3850.000000	86.071832 
3849.000000	86.071239 
3848.000000	86.046097 
3847.000000	86.002461 
3846.000000	85.956482 
3845.000000	85.918506 
3844.000000	85.886202 
3843.000000	85.853861 
3842.000000	85.823815 
3841.000000	85.804449 
3840.000000	85.803017 
3839.000000	85.819460 
3838.000000	85.850311 
3837.000000	85.893533 
3836.000000	85.944773 
3835.000000	85.997579 
3834.000000	86.042511 
3833.000000	86.066218 
3832.000000	86.058932 
3831.000000	86.025206 
3830.000000	85.987529 
3829.000000	85.970659 
3828.000000	85.977537 
3827.000000	85.983787 
3826.000000	85.962892 
3825.000000	85.918675 
3824.000000	85.888181 
3823.000000	85.907055 
3822.000000	85.976994 
3821.000000	86.049798 
3820.000000	86.071842 
3819.000000	86.065254 
3818.000000	86.089202 
3817.000000	86.146879 
3816.000000	86.189478 
3815.000000	86.183129 
3814.000000	86.151306 
3813.000000	86.134281 
3812.000000	86.131865 
3811.000000	86.116685 
3810.000000	86.079117 
3809.000000	86.041520 
3808.000000	86.030296 
3807.000000	86.040811 
3806.000000	86.046657 
3805.000000	86.052056 
3804.000000	86.093985 
3803.000000	86.181880 
3802.000000	86.275522 
3801.000000	86.315450 
3800.000000	86.293014 
3799.000000	86.264546 
3798.000000	86.264715 
3797.000000	86.264048 
3796.000000	86.216723 
3795.000000	86.121293 
3794.000000	86.024977 
3793.000000	85.974167 
3792.000000	85.978929 
3791.000000	86.018138 
3790.000000	86.061331 
3789.000000	86.087686 
3788.000000	86.099344 
3787.000000	86.118815 
3786.000000	86.162927 
3785.000000	86.213701 
3784.000000	86.227192 
3783.000000	86.181407 
3782.000000	86.105898 
3781.000000	86.055578 
3780.000000	86.059946 
3779.000000	86.095843 
3778.000000	86.116085 
3777.000000	86.101327 
3776.000000	86.064498 
3775.000000	86.017845 
3774.000000	85.962203 
3773.000000	85.900120 
3772.000000	85.843263 
3771.000000	85.802018 
3770.000000	85.773136 
3769.000000	85.747068 
3768.000000	85.733761 
3767.000000	85.756765 
3766.000000	85.816501 
3765.000000	85.881735 
3764.000000	85.919891 
3763.000000	85.926164 
3762.000000	85.914869 
3761.000000	85.897472 
3760.000000	85.882660 
3759.000000	85.880843 
3758.000000	85.896309 
3757.000000	85.919920 
3756.000000	85.939899 
3755.000000	85.955296 
3754.000000	85.972283 
3753.000000	85.993802 
3752.000000	86.017550 
3751.000000	86.032080 
3750.000000	86.009625 
3749.000000	85.938165 
3748.000000	85.856363 
3747.000000	85.820877 
3746.000000	85.853860 
3745.000000	85.925512 
3744.000000	85.966980 
3743.000000	85.945727 
3742.000000	85.907480 
3741.000000	85.892438 
3740.000000	85.885405 
3739.000000	85.850201 
3738.000000	85.771925 
3737.000000	85.678411 
3736.000000	85.619916 
3735.000000	85.624954 
3734.000000	85.676871 
3733.000000	85.736056 
3732.000000	85.768212 
3731.000000	85.765258 
3730.000000	85.750902 
3729.000000	85.750624 
3728.000000	85.761272 
3727.000000	85.757099 
3726.000000	85.722900 
3725.000000	85.678648 
3724.000000	85.662274 
3723.000000	85.694498 
3722.000000	85.768304 
3721.000000	85.865201 
3720.000000	85.968687 
3719.000000	86.057518 
3718.000000	86.107869 
3717.000000	86.109834 
3716.000000	86.075875 
3715.000000	86.026918 
3714.000000	85.970798 
3713.000000	85.905551 
3712.000000	85.844018 
3711.000000	85.815179 
3710.000000	85.831509 
3709.000000	85.871528 
3708.000000	85.900969 
3707.000000	85.900885 
3706.000000	85.876817 
3705.000000	85.850620 
3704.000000	85.842607 
3703.000000	85.855457 
3702.000000	85.871326 
3701.000000	85.869003 
3700.000000	85.853371 
3699.000000	85.855370 
3698.000000	85.895576 
3697.000000	85.961579 
3696.000000	86.019627 
3695.000000	86.042576 
3694.000000	86.027611 
3693.000000	85.991470 
3692.000000	85.961084 
3691.000000	85.962827 
3690.000000	86.005840 
3689.000000	86.058865 
3688.000000	86.069936 
3687.000000	86.027598 
3686.000000	85.965660 
3685.000000	85.916685 
3684.000000	85.888711 
3683.000000	85.876227 
3682.000000	85.876791 
3681.000000	85.891620 
3680.000000	85.914124 
3679.000000	85.933890 
3678.000000	85.949017 
3677.000000	85.966562 
3676.000000	85.983280 
3675.000000	85.960428 
3674.000000	85.886098 
3673.000000	85.828984 
3672.000000	85.842131 
3671.000000	85.899473 
3670.000000	85.938290 
3669.000000	85.916020 
3668.000000	85.855012 
3667.000000	85.810706 
3666.000000	85.800226 
3665.000000	85.801446 
3664.000000	85.795243 
3663.000000	85.786584 
3662.000000	85.794940 
3661.000000	85.827505 
3660.000000	85.867623 
3659.000000	85.888662 
3658.000000	85.869085 
3657.000000	85.801221 
3656.000000	85.691714 
3655.000000	85.567045 
3654.000000	85.471599 
3653.000000	85.439239 
3652.000000	85.469805 
3651.000000	85.533860 
3650.000000	85.594067 
3649.000000	85.623407 
3648.000000	85.618426 
3647.000000	85.601541 
3646.000000	85.601477 
3645.000000	85.630684 
3644.000000	85.677603 
3643.000000	85.714378 
3642.000000	85.718582 
3641.000000	85.692526 
3640.000000	85.660875 
3639.000000	85.647060 
3638.000000	85.651594 
3637.000000	85.657987 
3636.000000	85.650915 
3635.000000	85.623970 
3634.000000	85.577341 
3633.000000	85.517839 
3632.000000	85.458012 
3631.000000	85.403928 
3630.000000	85.351878 
3629.000000	85.296557 
3628.000000	85.236261 
3627.000000	85.191162 
3626.000000	85.188286 
3625.000000	85.217310 
3624.000000	85.250513 
3623.000000	85.277255 
3622.000000	85.306237 
3621.000000	85.346293 
3620.000000	85.390667 
3619.000000	85.417574 
3618.000000	85.411660 
3617.000000	85.382817 
3616.000000	85.350924 
3615.000000	85.322935 
3614.000000	85.293707 
3613.000000	85.254946 
3612.000000	85.205476 
3611.000000	85.158548 
3610.000000	85.131843 
3609.000000	85.130809 
3608.000000	85.141439 
3607.000000	85.142939 
3606.000000	85.136009 
3605.000000	85.143770 
3604.000000	85.181747 
3603.000000	85.237631 
3602.000000	85.277629 
3601.000000	85.272559 
3600.000000	85.221095 
3599.000000	85.147763 
3598.000000	85.080327 
3597.000000	85.032618 
3596.000000	85.005823 
3595.000000	84.997804 
3594.000000	85.002058 
3593.000000	85.006921 
3592.000000	85.004111 
3591.000000	84.993958 
3590.000000	84.981058 
3589.000000	84.969163 
3588.000000	84.959050 
3587.000000	84.952047 
3586.000000	84.959002 
3585.000000	84.994323 
3584.000000	85.047380 
3583.000000	85.084287 
3582.000000	85.082569 
3581.000000	85.054361 
3580.000000	85.031648 
3579.000000	85.034536 
3578.000000	85.057611 
3577.000000	85.083026 
3576.000000	85.096138 
3575.000000	85.087272 
3574.000000	85.049296 
3573.000000	84.979256 
3572.000000	84.883387 
3571.000000	84.776681 
3570.000000	84.679872 
3569.000000	84.616876 
3568.000000	84.606806 
3567.000000	84.642977 
3566.000000	84.691325 
3565.000000	84.726883 
3564.000000	84.751871 
3563.000000	84.774160 
3562.000000	84.793177 
3561.000000	84.805220 
3560.000000	84.811950 
3559.000000	84.818528 
3558.000000	84.825184 
3557.000000	84.824226 
3556.000000	84.808441 
3555.000000	84.782391 
3554.000000	84.764108 
3553.000000	84.771776 
3552.000000	84.806740 
3551.000000	84.852845 
3550.000000	84.892409 
3549.000000	84.919327 
3548.000000	84.937007 
3547.000000	84.949180 
3546.000000	84.953200 
3545.000000	84.940965 
3544.000000	84.904540 
3543.000000	84.841418 
3542.000000	84.757634 
3541.000000	84.669453 
3540.000000	84.599599 
3539.000000	84.564664 
3538.000000	84.562205 
3537.000000	84.572856 
3536.000000	84.576958 
3535.000000	84.570423 
3534.000000	84.561540 
3533.000000	84.556739 
3532.000000	84.554323 
3531.000000	84.551712 
3530.000000	84.552540 
3529.000000	84.562682 
3528.000000	84.580113 
3527.000000	84.592035 
3526.000000	84.583811 
3525.000000	84.551179 
3524.000000	84.504283 
3523.000000	84.461326 
3522.000000	84.437456 
3521.000000	84.438579 
3520.000000	84.462155 
3519.000000	84.499999 
3518.000000	84.540427 
3517.000000	84.574743 
3516.000000	84.603936 
3515.000000	84.634420 
3514.000000	84.663246 
3513.000000	84.674466 
3512.000000	84.658584 
3511.000000	84.631203 
3510.000000	84.620791 
3509.000000	84.635498 
3508.000000	84.654568 
3507.000000	84.655295 
3506.000000	84.633972 
3505.000000	84.594256 
3504.000000	84.530667 
3503.000000	84.440219 
3502.000000	84.345568 
3501.000000	84.287250 
3500.000000	84.287416 
3499.000000	84.330669 
3498.000000	84.380668 
3497.000000	84.406742 
3496.000000	84.399033 
3495.000000	84.370714 
3494.000000	84.348741 
3493.000000	84.352173 
3492.000000	84.371844 
3491.000000	84.377652 
3490.000000	84.352292 
3489.000000	84.314557 
3488.000000	84.301179 
3487.000000	84.327052 
3486.000000	84.371976 
3485.000000	84.404694 
3484.000000	84.410116 
3483.000000	84.391876 
3482.000000	84.360528 
3481.000000	84.327539 
3480.000000	84.306297 
3479.000000	84.307988 
3478.000000	84.331420 
3477.000000	84.360050 
3476.000000	84.373717 
3475.000000	84.364374 
3474.000000	84.339564 
3473.000000	84.310295 
3472.000000	84.279541 
3471.000000	84.246525 
3470.000000	84.220344 
3469.000000	84.222162 
3468.000000	84.268708 
3467.000000	84.353774 
3466.000000	84.448201 
3465.000000	84.518461 
3464.000000	84.545090 
3463.000000	84.528170 
3462.000000	84.482315 
3461.000000	84.427078 
3460.000000	84.376767 
3459.000000	84.334373 
3458.000000	84.294123 
3457.000000	84.249898 
3456.000000	84.200753 
3455.000000	84.150247 
3454.000000	84.102458 
3453.000000	84.061152 
3452.000000	84.033138 
3451.000000	84.031016 
3450.000000	84.067724 
3449.000000	84.140905 
3448.000000	84.221228 
3447.000000	84.264873 
3446.000000	84.249666 
3445.000000	84.198920 
3444.000000	84.161808 
3443.000000	84.170012 
3442.000000	84.215553 
3441.000000	84.264970 
3440.000000	84.288543 
3439.000000	84.275720 
3438.000000	84.231136 
3437.000000	84.167131 
3436.000000	84.101637 
3435.000000	84.054470 
3434.000000	84.035485 
3433.000000	84.034933 
3432.000000	84.031262 
3431.000000	84.013669 
3430.000000	83.995295 
3429.000000	83.999197 
3428.000000	84.032935 
3427.000000	84.079979 
3426.000000	84.115451 
3425.000000	84.126778 
3424.000000	84.119622 
3423.000000	84.108522 
3422.000000	84.103145 
3421.000000	84.100273 
3420.000000	84.088190 
3419.000000	84.061257 
3418.000000	84.029376 
3417.000000	84.010281 
3416.000000	84.014032 
3415.000000	84.038124 
3414.000000	84.074966 
3413.000000	84.117144 
3412.000000	84.155521 
3411.000000	84.180988 
3410.000000	84.192880 
3409.000000	84.197938 
3408.000000	84.194877 
3407.000000	84.167044 
3406.000000	84.101194 
3405.000000	84.011759 
3404.000000	83.934927 
3403.000000	83.895383 
3402.000000	83.885342 
3401.000000	83.879464 
3400.000000	83.864450 
3399.000000	83.849867 
3398.000000	83.855832 
3397.000000	83.895216 
3396.000000	83.963111 
3395.000000	84.035911 
3394.000000	84.083201 
3393.000000	84.090139 
3392.000000	84.072415 
3391.000000	84.063523 
3390.000000	84.081905 
3389.000000	84.111945 
3388.000000	84.120571 
3387.000000	84.092066 
3386.000000	84.043573 
3385.000000	84.005509 
3384.000000	83.988705 
3383.000000	83.975596 
3382.000000	83.945377 
3381.000000	83.902987 
3380.000000	83.875725 
3379.000000	83.882421 
3378.000000	83.914729 
3377.000000	83.953014 
3376.000000	83.991157 
3375.000000	84.034005 
3374.000000	84.075305 
3373.000000	84.095340 
3372.000000	84.085278 
3371.000000	84.060316 
3370.000000	84.039242 
3369.000000	84.021424 
3368.000000	83.997035 
3367.000000	83.972575 
3366.000000	83.966419 
3365.000000	83.976832 
3364.000000	83.974046 
3363.000000	83.936439 
3362.000000	83.882414 
3361.000000	83.850509 
3360.000000	83.852840 
3359.000000	83.865299 
3358.000000	83.864877 
3357.000000	83.860673 
3356.000000	83.879196 
3355.000000	83.929973 
3354.000000	83.997693 
3353.000000	84.063850 
3352.000000	84.122544 
3351.000000	84.174280 
3350.000000	84.216860 
3349.000000	84.248268 
3348.000000	84.269605 
3347.000000	84.276858 
3346.000000	84.256385 
3345.000000	84.201865 
3344.000000	84.135747 
3343.000000	84.100068 
3342.000000	84.116214 
3341.000000	84.159176 
3340.000000	84.180400 
3339.000000	84.155828 
3338.000000	84.104328 
3337.000000	84.059812 
3336.000000	84.035385 
3335.000000	84.019666 
3334.000000	84.000598 
3333.000000	83.981272 
3332.000000	83.971845 
3331.000000	83.974196 
3330.000000	83.979594 
3329.000000	83.979352 
3328.000000	83.974293 
3327.000000	83.973298 
3326.000000	83.983073 
3325.000000	83.999490 
3324.000000	84.009522 
3323.000000	84.003138 
3322.000000	83.983450 
3321.000000	83.964392 
3320.000000	83.958734 
3319.000000	83.968925 
3318.000000	83.988783 
3317.000000	84.011805 
3316.000000	84.036173 
3315.000000	84.062824 
3314.000000	84.091606 
3313.000000	84.121700 
3312.000000	84.154846 
3311.000000	84.193477 
3310.000000	84.231952 
3309.000000	84.252658 
3308.000000	84.239034 
3307.000000	84.196270 
3306.000000	84.154231 
3305.000000	84.143836 
3304.000000	84.170760 
3303.000000	84.214535 
3302.000000	84.250503 
3301.000000	84.267971 
3300.000000	84.268462 
3299.000000	84.254831 
3298.000000	84.227332 
3297.000000	84.187127 
3296.000000	84.138922 
3295.000000	84.090744 
3294.000000	84.053828 
3293.000000	84.040655 
3292.000000	84.057607 
3291.000000	84.096967 
3290.000000	84.139052 
3289.000000	84.166803 
3288.000000	84.180540 
3287.000000	84.197804 
3286.000000	84.236720 
3285.000000	84.297770 
3284.000000	84.361485 
3283.000000	84.403714 
3282.000000	84.413797 
3281.000000	84.400101 
3280.000000	84.380895 
3279.000000	84.370405 
3278.000000	84.370466 
3277.000000	84.372689 
3276.000000	84.369088 
3275.000000	84.360909 
3274.000000	84.354047 
3273.000000	84.344014 
3272.000000	84.310702 
3271.000000	84.237055 
3270.000000	84.135995 
3269.000000	84.053731 
3268.000000	84.039317 
3267.000000	84.107083 
3266.000000	84.227557 
3265.000000	84.353535 
3264.000000	84.453145 
3263.000000	84.518260 
3262.000000	84.548483 
3261.000000	84.538995 
3260.000000	84.490221 
3259.000000	84.421928 
3258.000000	84.364565 
3257.000000	84.333187 
3256.000000	84.317976 
3255.000000	84.305721 
3254.000000	84.302853 
3253.000000	84.327648 
3252.000000	84.382661 
3251.000000	84.446262 
3250.000000	84.493846 
3249.000000	84.519661 
3248.000000	84.534053 
3247.000000	84.545106 
3246.000000	84.549739 
3245.000000	84.543020 
3244.000000	84.532004 
3243.000000	84.535619 
3242.000000	84.567113 
3241.000000	84.616239 
3240.000000	84.653425 
3239.000000	84.655565 
3238.000000	84.625114 
3237.000000	84.580473 
3236.000000	84.534806 
3235.000000	84.494789 
3234.000000	84.474256 
3233.000000	84.489652 
3232.000000	84.534292 
3231.000000	84.572119 
3230.000000	84.571934 
3229.000000	84.542349 
3228.000000	84.519773 
3227.000000	84.524093 
3226.000000	84.539586 
3225.000000	84.540783 
3224.000000	84.524237 
3223.000000	84.507265 
3222.000000	84.503142 
3221.000000	84.508209 
3220.000000	84.514038 
3219.000000	84.525054 
3218.000000	84.558187 
3217.000000	84.623359 
3216.000000	84.706458 
3215.000000	84.775155 
3214.000000	84.803497 
3213.000000	84.790224 
3212.000000	84.753599 
3211.000000	84.713943 
3210.000000	84.684956 
3209.000000	84.675468 
3208.000000	84.688659 
3207.000000	84.716406 
3206.000000	84.740421 
3205.000000	84.744561 
3204.000000	84.727496 
3203.000000	84.703187 
3202.000000	84.688982 
3201.000000	84.691373 
3200.000000	84.701645 
3199.000000	84.706595 
3198.000000	84.705084 
3197.000000	84.710974 
3196.000000	84.735756 
3195.000000	84.770839 
3194.000000	84.792747 
3193.000000	84.786199 
3192.000000	84.758270 
3191.000000	84.730351 
3190.000000	84.720744 
3189.000000	84.735586 
