PE IR                   SPECTRUM    ASCII       PEDS        1.60        
  -1
~SP.SP
22/02/22
09:51:29.00
22/02/22
09:51:29.00
Administrator

650.000000
4









SPECTRUM 100,CPU32 MAIN 00.02.7000 27-JANUARY-2006 11:32:41
MCT
MIR
OPTKBR
76073
1.000000

4.000000
STRONG
RATIO
SPECTRUM
MAGNITUDE
MIR INT SPHERE
DOUBLE

COMBINED


0


#HDR
-1
-1
#GR
CM-1
%T
0.00002384185791015625
0.0
4000.000000
-1.000000
3351
8
85.416913
65.734835
#DATA
4000.000000	84.795977 
3999.000000	84.775870 
3998.000000	84.745716 
3997.000000	84.708996 
3996.000000	84.666265 
3995.000000	84.617097 
3994.000000	84.565676 
3993.000000	84.527197 
3992.000000	84.521434 
3991.000000	84.555437 
3990.000000	84.612944 
3989.000000	84.664940 
3988.000000	84.693139 
3987.000000	84.702249 
3986.000000	84.709555 
3985.000000	84.724849 
3984.000000	84.742348 
3983.000000	84.749992 
3982.000000	84.741173 
3981.000000	84.715268 
3980.000000	84.671877 
3979.000000	84.613203 
3978.000000	84.553763 
3977.000000	84.518051 
3976.000000	84.518542 
3975.000000	84.538020 
3974.000000	84.543161 
3973.000000	84.520273 
3972.000000	84.490726 
3971.000000	84.486976 
3970.000000	84.516916 
3969.000000	84.556792 
3968.000000	84.577613 
3967.000000	84.573119 
3966.000000	84.560854 
3965.000000	84.560883 
3964.000000	84.578077 
3963.000000	84.603030 
3962.000000	84.625531 
3961.000000	84.644198 
3960.000000	84.664048 
3959.000000	84.689898 
3958.000000	84.723746 
3957.000000	84.763441 
3956.000000	84.800971 
3955.000000	84.824113 
3954.000000	84.824049 
3953.000000	84.802982 
3952.000000	84.773397 
3951.000000	84.749806 
3950.000000	84.740228 
3949.000000	84.741880 
3948.000000	84.743733 
3947.000000	84.734708 
3946.000000	84.713132 
3945.000000	84.690525 
3944.000000	84.681757 
3943.000000	84.687212 
3942.000000	84.687062 
3941.000000	84.663090 
3940.000000	84.623745 
3939.000000	84.600059 
3938.000000	84.616398 
3937.000000	84.664896 
3936.000000	84.707361 
3935.000000	84.703655 
3934.000000	84.643346 
3933.000000	84.556355 
3932.000000	84.491079 
3931.000000	84.475702 
3930.000000	84.499295 
3929.000000	84.531646 
3928.000000	84.555964 
3927.000000	84.574014 
3926.000000	84.590720 
3925.000000	84.603241 
3924.000000	84.604684 
3923.000000	84.597072 
3922.000000	84.595089 
3921.000000	84.614173 
3920.000000	84.654924 
3919.000000	84.699066 
3918.000000	84.722404 
3917.000000	84.713891 
3916.000000	84.681100 
3915.000000	84.641612 
3914.000000	84.612489 
3913.000000	84.606284 
3912.000000	84.626044 
3911.000000	84.662322 
3910.000000	84.698780 
3909.000000	84.723550 
3908.000000	84.736170 
3907.000000	84.745004 
3906.000000	84.757738 
3905.000000	84.774484 
3904.000000	84.784775 
3903.000000	84.774730 
3902.000000	84.743363 
3901.000000	84.704973 
3900.000000	84.675497 
3899.000000	84.656610 
3898.000000	84.635357 
3897.000000	84.605123 
3896.000000	84.577580 
3895.000000	84.574308 
3894.000000	84.609504 
3893.000000	84.674986 
3892.000000	84.736791 
3891.000000	84.754875 
3890.000000	84.718033 
3889.000000	84.653626 
3888.000000	84.603258 
3887.000000	84.598914 
3886.000000	84.646539 
3885.000000	84.716885 
3884.000000	84.766620 
3883.000000	84.773369 
3882.000000	84.743210 
3881.000000	84.691458 
3880.000000	84.629884 
3879.000000	84.572757 
3878.000000	84.543149 
3877.000000	84.563023 
3876.000000	84.635599 
3875.000000	84.735381 
3874.000000	84.817074 
3873.000000	84.844967 
3872.000000	84.817167 
3871.000000	84.760116 
3870.000000	84.702090 
3869.000000	84.655947 
3868.000000	84.624435 
3867.000000	84.606791 
3866.000000	84.602970 
3865.000000	84.612279 
3864.000000	84.622413 
3863.000000	84.617550 
3862.000000	84.596306 
3861.000000	84.572652 
3860.000000	84.564405 
3859.000000	84.581377 
3858.000000	84.616270 
3857.000000	84.648224 
3856.000000	84.658817 
3855.000000	84.648461 
3854.000000	84.629477 
3853.000000	84.600950 
3852.000000	84.562324 
3851.000000	84.525665 
3850.000000	84.495871 
3849.000000	84.471953 
3848.000000	84.455729 
3847.000000	84.452480 
3846.000000	84.470761 
3845.000000	84.515566 
3844.000000	84.575479 
3843.000000	84.626009 
3842.000000	84.640704 
3841.000000	84.606803 
3840.000000	84.540079 
3839.000000	84.480262 
3838.000000	84.462138 
3837.000000	84.488743 
3836.000000	84.533887 
3835.000000	84.571358 
3834.000000	84.593737 
3833.000000	84.609959 
3832.000000	84.632256 
3831.000000	84.658917 
3830.000000	84.674813 
3829.000000	84.671289 
3828.000000	84.657198 
3827.000000	84.653124 
3826.000000	84.671380 
3825.000000	84.699056 
3824.000000	84.705379 
3823.000000	84.670994 
3822.000000	84.606409 
3821.000000	84.540784 
3820.000000	84.500061 
3819.000000	84.493079 
3818.000000	84.515375 
3817.000000	84.556175 
3816.000000	84.596802 
3815.000000	84.611038 
3814.000000	84.588169 
3813.000000	84.547188 
3812.000000	84.518564 
3811.000000	84.518677 
3810.000000	84.540335 
3809.000000	84.565832 
3808.000000	84.585567 
3807.000000	84.598093 
3806.000000	84.594761 
3805.000000	84.562128 
3804.000000	84.499814 
3803.000000	84.430465 
3802.000000	84.391218 
3801.000000	84.400181 
3800.000000	84.442725 
3799.000000	84.496959 
3798.000000	84.549128 
3797.000000	84.588008 
3796.000000	84.603615 
3795.000000	84.597212 
3794.000000	84.585084 
3793.000000	84.581393 
3792.000000	84.579107 
3791.000000	84.553302 
3790.000000	84.490652 
3789.000000	84.413720 
3788.000000	84.369215 
3787.000000	84.385859 
3786.000000	84.444984 
3785.000000	84.494942 
3784.000000	84.497615 
3783.000000	84.460354 
3782.000000	84.422987 
3781.000000	84.420577 
3780.000000	84.455063 
3779.000000	84.496588 
3778.000000	84.512813 
3777.000000	84.495504 
3776.000000	84.458710 
3775.000000	84.422247 
3774.000000	84.399523 
3773.000000	84.391348 
3772.000000	84.388472 
3771.000000	84.383598 
3770.000000	84.380370 
3769.000000	84.388229 
3768.000000	84.411701 
3767.000000	84.438987 
3766.000000	84.446041 
3765.000000	84.422998 
3764.000000	84.388164 
3763.000000	84.370256 
3762.000000	84.382415 
3761.000000	84.417164 
3760.000000	84.455137 
3759.000000	84.476906 
3758.000000	84.475052 
3757.000000	84.455783 
3756.000000	84.428027 
3755.000000	84.394155 
3754.000000	84.348568 
3753.000000	84.276866 
3752.000000	84.164137 
3751.000000	84.022477 
3750.000000	83.907128 
3749.000000	83.870785 
3748.000000	83.906993 
3747.000000	83.963925 
3746.000000	84.002739 
3745.000000	84.031328 
3744.000000	84.075498 
3743.000000	84.140228 
3742.000000	84.205013 
3741.000000	84.243924 
3740.000000	84.242819 
3739.000000	84.200645 
3738.000000	84.127431 
3737.000000	84.053526 
3736.000000	84.022471 
3735.000000	84.053180 
3734.000000	84.118587 
3733.000000	84.176404 
3732.000000	84.206216 
3731.000000	84.208708 
3730.000000	84.187653 
3729.000000	84.142757 
3728.000000	84.082956 
3727.000000	84.037402 
3726.000000	84.037856 
3725.000000	84.085874 
3724.000000	84.143746 
3723.000000	84.162430 
3722.000000	84.116720 
3721.000000	84.026829 
3720.000000	83.945529 
3719.000000	83.911117 
3718.000000	83.918837 
3717.000000	83.936365 
3716.000000	83.935764 
3715.000000	83.912925 
3714.000000	83.883807 
3713.000000	83.866098 
3712.000000	83.860619 
3711.000000	83.854351 
3710.000000	83.842759 
3709.000000	83.833912 
3708.000000	83.835826 
3707.000000	83.849216 
3706.000000	83.867057 
3705.000000	83.879818 
3704.000000	83.881017 
3703.000000	83.866520 
3702.000000	83.831204 
3701.000000	83.774234 
3700.000000	83.710106 
3699.000000	83.662117 
3698.000000	83.641599 
3697.000000	83.639061 
3696.000000	83.628685 
3695.000000	83.585364 
3694.000000	83.505487 
3693.000000	83.411200 
3692.000000	83.334176 
3691.000000	83.293050 
3690.000000	83.281531 
3689.000000	83.268156 
3688.000000	83.227422 
3687.000000	83.172563 
3686.000000	83.132190 
3685.000000	83.116191 
3684.000000	83.114921 
3683.000000	83.114167 
3682.000000	83.104498 
3681.000000	83.084317 
3680.000000	83.058052 
3679.000000	83.027467 
3678.000000	82.988237 
3677.000000	82.946617 
3676.000000	82.927039 
3675.000000	82.937937 
3674.000000	82.953709 
3673.000000	82.942276 
3672.000000	82.889428 
3671.000000	82.811729 
3670.000000	82.750035 
3669.000000	82.729305 
3668.000000	82.732442 
3667.000000	82.723637 
3666.000000	82.681858 
3665.000000	82.609284 
3664.000000	82.519007 
3663.000000	82.422647 
3662.000000	82.332489 
3661.000000	82.261176 
3660.000000	82.211645 
3659.000000	82.168736 
3658.000000	82.109270 
3657.000000	82.026532 
3656.000000	81.939740 
3655.000000	81.871896 
3654.000000	81.820789 
3653.000000	81.760061 
3652.000000	81.669157 
3651.000000	81.558793 
3650.000000	81.468423 
3649.000000	81.424637 
3648.000000	81.395994 
3647.000000	81.327188 
3646.000000	81.211240 
3645.000000	81.089466 
3644.000000	80.996214 
3643.000000	80.925738 
3642.000000	80.845609 
3641.000000	80.733668 
3640.000000	80.600117 
3639.000000	80.474690 
3638.000000	80.375330 
3637.000000	80.294002 
3636.000000	80.206408 
3635.000000	80.090361 
3634.000000	79.939671 
3633.000000	79.766006 
3632.000000	79.588930 
3631.000000	79.422022 
3630.000000	79.264538 
3629.000000	79.101505 
3628.000000	78.926129 
3627.000000	78.758108 
3626.000000	78.617689 
3625.000000	78.500076 
3624.000000	78.385764 
3623.000000	78.253032 
3622.000000	78.085450 
3621.000000	77.883094 
3620.000000	77.669710 
3619.000000	77.477346 
3618.000000	77.324148 
3617.000000	77.203858 
3616.000000	77.093316 
3615.000000	76.968310 
3614.000000	76.816421 
3613.000000	76.639468 
3612.000000	76.449321 
3611.000000	76.258272 
3610.000000	76.069993 
3609.000000	75.884937 
3608.000000	75.708739 
3607.000000	75.546487 
3606.000000	75.392026 
3605.000000	75.228195 
3604.000000	75.042133 
3603.000000	74.834859 
3602.000000	74.616467 
3601.000000	74.399522 
3600.000000	74.196869 
3599.000000	74.018112 
3598.000000	73.865878 
3597.000000	73.730212 
3596.000000	73.588021 
3595.000000	73.418131 
3594.000000	73.216493 
3593.000000	72.997251 
3592.000000	72.782989 
3591.000000	72.594335 
3590.000000	72.442782 
3589.000000	72.323621 
3588.000000	72.209357 
3587.000000	72.064185 
3586.000000	71.879133 
3585.000000	71.680249 
3584.000000	71.495079 
3583.000000	71.327127 
3582.000000	71.162122 
3581.000000	70.990926 
3580.000000	70.822688 
3579.000000	70.678101 
3578.000000	70.568431 
3577.000000	70.480815 
3576.000000	70.382338 
3575.000000	70.246339 
3574.000000	70.081378 
3573.000000	69.929527 
3572.000000	69.828728 
3571.000000	69.774421 
3570.000000	69.719916 
3569.000000	69.616013 
3568.000000	69.453878 
3567.000000	69.267663 
3566.000000	69.095431 
3565.000000	68.946561 
3564.000000	68.811249 
3563.000000	68.680951 
3562.000000	68.550745 
3561.000000	68.416159 
3560.000000	68.279696 
3559.000000	68.156318 
3558.000000	68.065316 
3557.000000	68.015425 
3556.000000	67.997031 
3555.000000	67.985687 
3554.000000	67.953196 
3553.000000	67.882726 
3552.000000	67.778885 
3551.000000	67.660415 
3550.000000	67.538556 
3549.000000	67.409996 
3548.000000	67.276109 
3547.000000	67.162491 
3546.000000	67.104907 
3545.000000	67.108640 
3544.000000	67.130397 
3543.000000	67.114171 
3542.000000	67.039062 
3541.000000	66.928557 
3540.000000	66.821376 
3539.000000	66.739264 
3538.000000	66.677641 
3537.000000	66.619963 
3536.000000	66.556827 
3535.000000	66.492514 
3534.000000	66.434020 
3533.000000	66.380094 
3532.000000	66.325832 
3531.000000	66.276542 
3530.000000	66.247870 
3529.000000	66.245688 
3528.000000	66.250590 
3527.000000	66.233726 
3526.000000	66.189667 
3525.000000	66.144827 
3524.000000	66.128172 
3523.000000	66.138161 
3522.000000	66.143514 
3521.000000	66.115313 
3520.000000	66.054168 
3519.000000	65.988281 
3518.000000	65.949175 
3517.000000	65.948502 
3516.000000	65.971538 
3515.000000	65.992091 
3514.000000	65.993735 
3513.000000	65.979546 
3512.000000	65.964479 
3511.000000	65.960505 
3510.000000	65.966170 
3509.000000	65.965946 
3508.000000	65.940146 
3507.000000	65.881313 
3506.000000	65.806130 
3505.000000	65.748806 
3504.000000	65.734835 
3503.000000	65.756725 
3502.000000	65.781162 
3501.000000	65.786356 
3500.000000	65.786196 
3499.000000	65.813425 
3498.000000	65.883253 
3497.000000	65.976618 
3496.000000	66.055986 
3495.000000	66.095677 
3494.000000	66.097010 
3493.000000	66.078022 
3492.000000	66.053679 
3491.000000	66.027656 
3490.000000	65.999572 
3489.000000	65.975673 
3488.000000	65.969097 
3487.000000	65.987583 
3486.000000	66.022283 
3485.000000	66.051547 
3484.000000	66.058417 
3483.000000	66.045040 
3482.000000	66.029863 
3481.000000	66.029857 
3480.000000	66.046835 
3479.000000	66.072847 
3478.000000	66.103565 
3477.000000	66.139474 
3476.000000	66.174496 
3475.000000	66.192077 
3474.000000	66.180183 
3473.000000	66.148916 
3472.000000	66.126391 
3471.000000	66.135801 
3470.000000	66.177840 
3469.000000	66.233405 
3468.000000	66.279970 
3467.000000	66.305384 
3466.000000	66.311217 
3465.000000	66.306605 
3464.000000	66.298835 
3463.000000	66.288395 
3462.000000	66.271715 
3461.000000	66.247524 
3460.000000	66.219657 
3459.000000	66.195614 
3458.000000	66.184029 
3457.000000	66.190112 
3456.000000	66.210157 
3455.000000	66.233845 
3454.000000	66.256557 
3453.000000	66.288595 
3452.000000	66.343543 
3451.000000	66.415940 
3450.000000	66.478367 
3449.000000	66.507216 
3448.000000	66.508465 
3447.000000	66.510075 
3446.000000	66.528105 
3445.000000	66.548280 
3444.000000	66.547369 
3443.000000	66.527043 
3442.000000	66.518894 
3441.000000	66.555035 
3440.000000	66.636751 
3439.000000	66.736137 
3438.000000	66.824813 
3437.000000	66.892894 
3436.000000	66.939570 
3435.000000	66.956454 
3434.000000	66.932799 
3433.000000	66.878871 
3432.000000	66.832361 
3431.000000	66.832398 
3430.000000	66.887412 
3429.000000	66.972179 
3428.000000	67.053374 
3427.000000	67.113905 
3426.000000	67.154774 
3425.000000	67.181134 
3424.000000	67.192318 
3423.000000	67.184993 
3422.000000	67.162998 
3421.000000	67.140941 
3420.000000	67.135003 
3419.000000	67.149670 
3418.000000	67.175945 
3417.000000	67.204215 
3416.000000	67.236361 
3415.000000	67.281693 
3414.000000	67.341744 
3413.000000	67.402722 
3412.000000	67.445230 
3411.000000	67.460335 
3410.000000	67.454273 
3409.000000	67.439283 
3408.000000	67.424936 
3407.000000	67.420440 
3406.000000	67.441344 
3405.000000	67.504608 
3404.000000	67.609753 
3403.000000	67.727217 
3402.000000	67.813609 
3401.000000	67.845903 
3400.000000	67.840728 
3399.000000	67.837342 
3398.000000	67.860971 
3397.000000	67.902032 
3396.000000	67.929050 
3395.000000	67.921180 
3394.000000	67.890269 
3393.000000	67.872596 
3392.000000	67.897817 
3391.000000	67.963106 
3390.000000	68.037708 
3389.000000	68.091482 
3388.000000	68.117178 
3387.000000	68.127751 
3386.000000	68.140948 
3385.000000	68.169504 
3384.000000	68.218269 
3383.000000	68.282237 
3382.000000	68.348560 
3381.000000	68.406907 
3380.000000	68.457541 
3379.000000	68.506622 
3378.000000	68.557389 
3377.000000	68.610650 
3376.000000	68.668697 
3375.000000	68.729441 
3374.000000	68.779731 
3373.000000	68.805961 
3372.000000	68.812679 
3371.000000	68.820138 
3370.000000	68.840700 
3369.000000	68.867099 
3368.000000	68.888166 
3367.000000	68.906985 
3366.000000	68.937166 
3365.000000	68.988558 
3364.000000	69.062781 
3363.000000	69.155357 
3362.000000	69.254374 
3361.000000	69.343352 
3360.000000	69.414304 
3359.000000	69.474093 
3358.000000	69.530667 
3357.000000	69.578430 
3356.000000	69.606691 
3355.000000	69.618301 
3354.000000	69.629167 
3353.000000	69.651176 
3352.000000	69.686637 
3351.000000	69.737283 
3350.000000	69.803901 
3349.000000	69.873299 
3348.000000	69.919424 
3347.000000	69.927796 
3346.000000	69.913018 
3345.000000	69.904144 
3344.000000	69.916727 
3343.000000	69.946041 
3342.000000	69.983728 
3341.000000	70.030568 
3340.000000	70.089698 
3339.000000	70.152542 
3338.000000	70.198264 
3337.000000	70.210923 
3336.000000	70.197595 
3335.000000	70.186238 
3334.000000	70.202330 
3333.000000	70.248836 
3332.000000	70.310408 
3331.000000	70.373226 
3330.000000	70.434582 
3329.000000	70.495444 
3328.000000	70.553222 
3327.000000	70.605125 
3326.000000	70.652131 
3325.000000	70.695147 
3324.000000	70.731938 
3323.000000	70.763110 
3322.000000	70.797340 
3321.000000	70.844330 
3320.000000	70.902944 
3319.000000	70.959986 
3318.000000	71.001116 
3317.000000	71.021761 
3316.000000	71.028895 
3315.000000	71.035163 
3314.000000	71.051762 
3313.000000	71.085558 
3312.000000	71.140865 
3311.000000	71.219804 
3310.000000	71.317036 
3309.000000	71.416337 
3308.000000	71.498930 
3307.000000	71.556562 
3306.000000	71.591472 
3305.000000	71.603424 
3304.000000	71.586030 
3303.000000	71.542196 
3302.000000	71.497211 
3301.000000	71.486951 
3300.000000	71.530049 
3299.000000	71.613655 
3298.000000	71.705948 
3297.000000	71.781653 
3296.000000	71.837205 
3295.000000	71.884104 
3294.000000	71.929554 
3293.000000	71.966675 
3292.000000	71.986943 
3291.000000	71.999310 
3290.000000	72.027907 
3289.000000	72.087270 
3288.000000	72.165804 
3287.000000	72.237411 
3286.000000	72.285484 
3285.000000	72.313380 
3284.000000	72.337398 
3283.000000	72.373500 
3282.000000	72.424556 
3281.000000	72.474619 
3280.000000	72.501902 
3279.000000	72.504588 
3278.000000	72.507895 
3277.000000	72.537201 
3276.000000	72.588815 
3275.000000	72.637639 
3274.000000	72.670480 
3273.000000	72.697275 
3272.000000	72.728039 
3271.000000	72.754659 
3270.000000	72.764644 
3269.000000	72.763894 
3268.000000	72.774380 
3267.000000	72.810856 
3266.000000	72.866830 
3265.000000	72.922805 
3264.000000	72.963408 
3263.000000	72.986860 
3262.000000	73.003805 
3261.000000	73.029848 
3260.000000	73.075684 
3259.000000	73.138570 
3258.000000	73.201487 
3257.000000	73.244214 
3256.000000	73.260537 
3255.000000	73.264528 
3254.000000	73.275298 
3253.000000	73.295429 
3252.000000	73.309924 
3251.000000	73.308962 
3250.000000	73.303871 
3249.000000	73.313116 
3248.000000	73.337532 
3247.000000	73.358778 
3246.000000	73.362183 
3245.000000	73.354603 
3244.000000	73.359559 
3243.000000	73.400203 
3242.000000	73.484489 
3241.000000	73.595549 
3240.000000	73.694132 
3239.000000	73.742383 
3238.000000	73.735038 
3237.000000	73.704418 
3236.000000	73.690405 
3235.000000	73.708275 
3234.000000	73.746655 
3233.000000	73.788482 
3232.000000	73.826383 
3231.000000	73.861458 
3230.000000	73.895042 
3229.000000	73.924198 
3228.000000	73.945101 
3227.000000	73.961675 
3226.000000	73.987710 
3225.000000	74.032628 
3224.000000	74.084355 
3223.000000	74.117226 
3222.000000	74.123329 
3221.000000	74.126208 
3220.000000	74.153063 
3219.000000	74.199944 
3218.000000	74.238083 
3217.000000	74.250817 
3216.000000	74.248602 
3215.000000	74.247509 
3214.000000	74.250765 
3213.000000	74.259371 
3212.000000	74.286075 
3211.000000	74.343148 
3210.000000	74.420323 
3209.000000	74.488026 
3208.000000	74.525379 
3207.000000	74.538973 
3206.000000	74.553978 
3205.000000	74.592971 
3204.000000	74.662854 
3203.000000	74.752556 
3202.000000	74.837746 
3201.000000	74.893638 
3200.000000	74.913831 
3199.000000	74.919744 
3198.000000	74.945777 
3197.000000	75.007891 
3196.000000	75.086330 
3195.000000	75.144652 
3194.000000	75.167767 
3193.000000	75.176756 
3192.000000	75.203153 
3191.000000	75.254318 
3190.000000	75.311511 
3189.000000	75.357775 
