PE IR                   SPECTRUM    ASCII       PEDS        1.60        
  -1
~SP.SP
22/02/22
09:06:52.00
22/02/22
09:06:52.00
Administrator

450.000000
4









SPECTRUM 100,CPU32 MAIN 00.02.7000 27-JANUARY-2006 11:32:41
MIR TGS
MIR
OPTKBR
76073
0.200000

4.000000
STRONG
RATIO
SPECTRUM
MAGNITUDE
SLIDE HOLDER
DOUBLE

COMBINED


0


#HDR
-1
-1
#GR
CM-1
%T
0.00002384185791015625
0.0
4000.000000
-1.000000
3551
8
96.572437
0.441201
#DATA
4000.000000	91.465774 
3999.000000	91.473138 
3998.000000	91.480503 
3997.000000	91.487865 
3996.000000	91.495792 
3995.000000	91.504238 
3994.000000	91.512710 
3993.000000	91.520596 
3992.000000	91.527644 
3991.000000	91.534071 
3990.000000	91.540323 
3989.000000	91.546833 
3988.000000	91.553947 
3987.000000	91.561933 
3986.000000	91.570911 
3985.000000	91.580711 
3984.000000	91.590779 
3983.000000	91.600340 
3982.000000	91.608889 
3981.000000	91.616664 
3980.000000	91.624551 
3979.000000	91.633363 
3978.000000	91.643129 
3977.000000	91.653085 
3976.000000	91.662363 
3975.000000	91.670656 
3974.000000	91.678343 
3973.000000	91.686057 
3972.000000	91.694140 
3971.000000	91.702465 
3970.000000	91.710787 
3969.000000	91.719258 
3968.000000	91.728402 
3967.000000	91.738467 
3966.000000	91.748941 
3965.000000	91.758919 
3964.000000	91.767911 
3963.000000	91.776231 
3962.000000	91.784573 
3961.000000	91.793332 
3960.000000	91.802403 
3959.000000	91.811532 
3958.000000	91.820696 
3957.000000	91.830108 
3956.000000	91.839860 
3955.000000	91.849645 
3954.000000	91.859019 
3953.000000	91.867911 
3952.000000	91.876745 
3951.000000	91.886064 
3950.000000	91.896075 
3949.000000	91.906586 
3948.000000	91.917156 
3947.000000	91.927307 
3946.000000	91.936826 
3945.000000	91.945941 
3944.000000	91.955157 
3943.000000	91.964856 
3942.000000	91.975058 
3941.000000	91.985457 
3940.000000	91.995723 
3939.000000	92.005762 
3938.000000	92.015612 
3937.000000	92.025129 
3936.000000	92.033936 
3935.000000	92.041787 
3934.000000	92.049076 
3933.000000	92.056960 
3932.000000	92.066678 
3931.000000	92.078448 
3930.000000	92.091075 
3929.000000	92.102932 
3928.000000	92.113310 
3927.000000	92.122821 
3926.000000	92.132718 
3925.000000	92.143809 
3924.000000	92.155832 
3923.000000	92.167532 
3922.000000	92.177428 
3921.000000	92.185089 
3920.000000	92.191796 
3919.000000	92.199776 
3918.000000	92.210531 
3917.000000	92.223684 
3916.000000	92.237371 
3915.000000	92.249669 
3914.000000	92.259789 
3913.000000	92.268314 
3912.000000	92.276548 
3911.000000	92.285441 
3910.000000	92.294798 
3909.000000	92.303571 
3908.000000	92.311011 
3907.000000	92.317421 
3906.000000	92.323936 
3905.000000	92.331793 
3904.000000	92.341766 
3903.000000	92.354160 
3902.000000	92.368771 
3901.000000	92.384894 
3900.000000	92.401354 
3899.000000	92.416550 
3898.000000	92.428986 
3897.000000	92.437992 
3896.000000	92.444123 
3895.000000	92.449102 
3894.000000	92.454998 
3893.000000	92.463162 
3892.000000	92.473689 
3891.000000	92.485493 
3890.000000	92.497037 
3889.000000	92.507324 
3888.000000	92.516521 
3887.000000	92.525774 
3886.000000	92.536128 
3885.000000	92.547881 
3884.000000	92.560526 
3883.000000	92.573054 
3882.000000	92.584862 
3881.000000	92.596326 
3880.000000	92.607961 
3879.000000	92.619607 
3878.000000	92.630475 
3877.000000	92.639803 
3876.000000	92.647584 
3875.000000	92.654466 
3874.000000	92.661539 
3873.000000	92.670147 
3872.000000	92.680880 
3871.000000	92.692866 
3870.000000	92.704670 
3869.000000	92.715832 
3868.000000	92.726755 
3867.000000	92.737333 
3866.000000	92.747287 
3865.000000	92.757287 
3864.000000	92.768549 
3863.000000	92.781448 
3862.000000	92.794585 
3861.000000	92.805906 
3860.000000	92.814544 
3859.000000	92.821106 
3858.000000	92.827215 
3857.000000	92.834834 
3856.000000	92.845215 
3855.000000	92.857976 
3854.000000	92.871310 
3853.000000	92.884436 
3852.000000	92.898109 
3851.000000	92.911030 
3850.000000	92.920857 
3849.000000	92.928436 
3848.000000	92.936282 
3847.000000	92.945574 
3846.000000	92.955843 
3845.000000	92.965851 
3844.000000	92.974826 
3843.000000	92.983091 
3842.000000	92.991985 
3841.000000	93.002941 
3840.000000	93.015946 
3839.000000	93.029147 
3838.000000	93.040703 
3837.000000	93.050663 
3836.000000	93.060577 
3835.000000	93.071569 
3834.000000	93.083356 
3833.000000	93.094997 
3832.000000	93.105642 
3831.000000	93.115126 
3830.000000	93.124014 
3829.000000	93.132898 
3828.000000	93.141977 
3827.000000	93.151190 
3826.000000	93.160462 
3825.000000	93.170070 
3824.000000	93.180463 
3823.000000	93.191542 
3822.000000	93.202563 
3821.000000	93.213018 
3820.000000	93.223581 
3819.000000	93.235066 
3818.000000	93.246795 
3817.000000	93.257708 
3816.000000	93.267468 
3815.000000	93.276709 
3814.000000	93.286585 
3813.000000	93.296836 
3812.000000	93.306260 
3811.000000	93.314921 
3810.000000	93.324047 
3809.000000	93.334281 
3808.000000	93.344640 
3807.000000	93.353362 
3806.000000	93.360334 
3805.000000	93.367687 
3804.000000	93.377130 
3803.000000	93.388077 
3802.000000	93.398136 
3801.000000	93.405722 
3800.000000	93.412927 
3799.000000	93.422767 
3798.000000	93.435194 
3797.000000	93.448335 
3796.000000	93.460503 
3795.000000	93.471105 
3794.000000	93.480708 
3793.000000	93.489939 
3792.000000	93.498886 
3791.000000	93.507486 
3790.000000	93.515992 
3789.000000	93.524925 
3788.000000	93.534663 
3787.000000	93.544925 
3786.000000	93.554793 
3785.000000	93.563475 
3784.000000	93.571143 
3783.000000	93.578920 
3782.000000	93.587943 
3781.000000	93.598379 
3780.000000	93.609369 
3779.000000	93.619856 
3778.000000	93.629444 
3777.000000	93.638249 
3776.000000	93.646198 
3775.000000	93.653066 
3774.000000	93.659087 
3773.000000	93.665187 
3772.000000	93.672343 
3771.000000	93.680728 
3770.000000	93.689739 
3769.000000	93.698937 
3768.000000	93.708393 
3767.000000	93.718135 
3766.000000	93.728037 
3765.000000	93.737959 
3764.000000	93.747731 
3763.000000	93.757096 
3762.000000	93.765586 
3761.000000	93.772832 
3760.000000	93.779054 
3759.000000	93.785156 
3758.000000	93.792052 
3757.000000	93.799770 
3756.000000	93.807787 
3755.000000	93.815733 
3754.000000	93.823408 
3753.000000	93.830881 
3752.000000	93.838478 
3751.000000	93.846355 
3750.000000	93.854006 
3749.000000	93.860688 
3748.000000	93.866742 
3747.000000	93.873851 
3746.000000	93.883355 
3745.000000	93.894467 
3744.000000	93.905469 
3743.000000	93.915924 
3742.000000	93.924906 
3741.000000	93.930841 
3740.000000	93.934498 
3739.000000	93.937803 
3738.000000	93.941796 
3737.000000	93.947018 
3736.000000	93.954679 
3735.000000	93.966031 
3734.000000	93.980159 
3733.000000	93.993738 
3732.000000	94.003632 
3731.000000	94.009118 
3730.000000	94.011486 
3729.000000	94.012551 
3728.000000	94.014006 
3727.000000	94.016992 
3726.000000	94.021889 
3725.000000	94.028290 
3724.000000	94.035145 
3723.000000	94.041542 
3722.000000	94.047549 
3721.000000	94.053730 
3720.000000	94.060020 
3719.000000	94.065867 
3718.000000	94.070979 
3717.000000	94.075439 
3716.000000	94.079443 
3715.000000	94.082780 
3714.000000	94.084986 
3713.000000	94.085927 
3712.000000	94.086482 
3711.000000	94.087838 
3710.000000	94.090394 
3709.000000	94.093046 
3708.000000	94.094155 
3707.000000	94.093081 
3706.000000	94.090328 
3705.000000	94.087232 
3704.000000	94.084714 
3703.000000	94.083262 
3702.000000	94.082738 
3701.000000	94.082674 
3700.000000	94.081967 
3699.000000	94.079343 
3698.000000	94.074166 
3697.000000	94.066973 
3696.000000	94.059181 
3695.000000	94.052185 
3694.000000	94.046718 
3693.000000	94.042654 
3692.000000	94.039967 
3691.000000	94.038356 
3690.000000	94.037014 
3689.000000	94.034723 
3688.000000	94.031304 
3687.000000	94.027823 
3686.000000	94.025172 
3685.000000	94.023556 
3684.000000	94.022335 
3683.000000	94.020704 
3682.000000	94.018065 
3681.000000	94.014719 
3680.000000	94.011491 
3679.000000	94.009342 
3678.000000	94.008408 
3677.000000	94.007443 
3676.000000	94.004719 
3675.000000	94.000722 
3674.000000	93.998089 
3673.000000	93.997246 
3672.000000	93.996221 
3671.000000	93.993681 
3670.000000	93.989502 
3669.000000	93.984650 
3668.000000	93.980035 
3667.000000	93.974483 
3666.000000	93.966647 
3665.000000	93.957004 
3664.000000	93.946877 
3663.000000	93.937117 
3662.000000	93.927591 
3661.000000	93.917385 
3660.000000	93.905683 
3659.000000	93.892278 
3658.000000	93.877234 
3657.000000	93.860579 
3656.000000	93.842467 
3655.000000	93.823446 
3654.000000	93.803841 
3653.000000	93.783390 
3652.000000	93.761472 
3651.000000	93.737069 
3650.000000	93.709531 
3649.000000	93.680015 
3648.000000	93.650578 
3647.000000	93.621327 
3646.000000	93.590391 
3645.000000	93.556260 
3644.000000	93.518814 
3643.000000	93.478863 
3642.000000	93.437266 
3641.000000	93.394184 
3640.000000	93.349029 
3639.000000	93.301184 
3638.000000	93.250947 
3637.000000	93.199458 
3636.000000	93.147289 
3635.000000	93.093765 
3634.000000	93.038093 
3633.000000	92.980805 
3632.000000	92.922693 
3631.000000	92.862454 
3630.000000	92.796905 
3629.000000	92.725247 
3628.000000	92.652069 
3627.000000	92.582036 
3626.000000	92.513985 
3625.000000	92.444429 
3624.000000	92.372051 
3623.000000	92.297017 
3622.000000	92.219176 
3621.000000	92.137486 
3620.000000	92.051454 
3619.000000	91.963076 
3618.000000	91.875831 
3617.000000	91.791354 
3616.000000	91.708349 
3615.000000	91.624491 
3614.000000	91.538340 
3613.000000	91.450070 
3612.000000	91.360739 
3611.000000	91.270560 
3610.000000	91.178699 
3609.000000	91.084785 
3608.000000	90.990097 
3607.000000	90.896665 
3606.000000	90.804974 
3605.000000	90.713550 
3604.000000	90.620544 
3603.000000	90.525364 
3602.000000	90.428703 
3601.000000	90.331967 
3600.000000	90.236420 
3599.000000	90.142361 
3598.000000	90.048866 
3597.000000	89.954524 
3596.000000	89.858956 
3595.000000	89.763066 
3594.000000	89.668270 
3593.000000	89.575228 
3592.000000	89.483464 
3591.000000	89.391575 
3590.000000	89.298307 
3589.000000	89.203441 
3588.000000	89.108658 
3587.000000	89.016529 
3586.000000	88.927830 
3585.000000	88.840830 
3584.000000	88.753575 
3583.000000	88.665860 
3582.000000	88.578452 
3581.000000	88.491956 
3580.000000	88.406506 
3579.000000	88.321990 
3578.000000	88.238201 
3577.000000	88.154858 
3576.000000	88.071960 
3575.000000	87.989794 
3574.000000	87.908888 
3573.000000	87.829628 
3572.000000	87.752178 
3571.000000	87.676020 
3570.000000	87.600128 
3569.000000	87.523674 
3568.000000	87.447283 
3567.000000	87.372931 
3566.000000	87.301820 
3565.000000	87.232625 
3564.000000	87.163103 
3563.000000	87.092673 
3562.000000	87.022737 
3561.000000	86.955082 
3560.000000	86.890423 
3559.000000	86.827963 
3558.000000	86.766245 
3557.000000	86.704453 
3556.000000	86.643032 
3555.000000	86.583003 
3554.000000	86.524846 
3553.000000	86.468100 
3552.000000	86.412056 
3551.000000	86.356464 
3550.000000	86.301651 
3549.000000	86.248287 
3548.000000	86.197120 
3547.000000	86.148615 
3546.000000	86.102587 
3545.000000	86.058250 
3544.000000	86.014785 
3543.000000	85.971844 
3542.000000	85.929523 
3541.000000	85.888114 
3540.000000	85.847964 
3539.000000	85.809292 
3538.000000	85.772036 
3537.000000	85.735975 
3536.000000	85.701037 
3535.000000	85.667282 
3534.000000	85.634680 
3533.000000	85.603178 
3532.000000	85.572922 
3531.000000	85.544145 
3530.000000	85.516775 
3529.000000	85.490488 
3528.000000	85.465179 
3527.000000	85.441117 
3526.000000	85.418551 
3525.000000	85.397379 
3524.000000	85.377313 
3523.000000	85.358096 
3522.000000	85.339463 
3521.000000	85.321172 
3520.000000	85.303279 
3519.000000	85.286269 
3518.000000	85.270794 
3517.000000	85.257271 
3516.000000	85.245548 
3515.000000	85.234754 
3514.000000	85.223643 
3513.000000	85.211562 
3512.000000	85.199219 
3511.000000	85.188247 
3510.000000	85.179813 
3509.000000	85.173643 
3508.000000	85.168424 
3507.000000	85.162957 
3506.000000	85.156825 
3505.000000	85.150268 
3504.000000	85.143832 
3503.000000	85.138128 
3502.000000	85.133625 
3501.000000	85.130459 
3500.000000	85.128402 
3499.000000	85.126977 
3498.000000	85.125722 
3497.000000	85.124573 
3496.000000	85.124073 
3495.000000	85.124904 
3494.000000	85.127061 
3493.000000	85.129626 
3492.000000	85.131467 
3491.000000	85.132191 
3490.000000	85.132478 
3489.000000	85.133571 
3488.000000	85.136319 
3487.000000	85.140520 
3486.000000	85.145131 
3485.000000	85.149164 
3484.000000	85.152474 
3483.000000	85.155734 
3482.000000	85.159800 
3481.000000	85.165133 
3480.000000	85.171522 
3479.000000	85.178116 
3478.000000	85.183855 
3477.000000	85.188271 
3476.000000	85.191969 
3475.000000	85.196205 
3474.000000	85.201881 
3473.000000	85.209000 
3472.000000	85.216978 
3471.000000	85.225172 
3470.000000	85.233110 
3469.000000	85.240570 
3468.000000	85.247694 
3467.000000	85.254906 
3466.000000	85.262546 
3465.000000	85.270572 
3464.000000	85.278709 
3463.000000	85.286804 
3462.000000	85.294929 
3461.000000	85.303174 
3460.000000	85.311453 
3459.000000	85.319606 
3458.000000	85.327691 
3457.000000	85.336083 
3456.000000	85.345213 
3455.000000	85.355163 
3454.000000	85.365648 
3453.000000	85.376352 
3452.000000	85.387129 
3451.000000	85.397791 
3450.000000	85.407898 
3449.000000	85.417099 
3448.000000	85.425662 
3447.000000	85.434441 
3446.000000	85.444178 
3445.000000	85.454949 
3444.000000	85.466311 
3443.000000	85.477809 
3442.000000	85.489226 
3441.000000	85.500581 
3440.000000	85.512052 
3439.000000	85.523836 
3438.000000	85.535934 
3437.000000	85.548087 
3436.000000	85.559959 
3435.000000	85.571382 
3434.000000	85.582403 
3433.000000	85.593175 
3432.000000	85.603885 
3431.000000	85.614767 
3430.000000	85.626046 
3429.000000	85.637802 
3428.000000	85.649880 
3427.000000	85.661980 
3426.000000	85.673912 
3425.000000	85.685777 
3424.000000	85.697899 
3423.000000	85.710590 
3422.000000	85.723992 
3421.000000	85.738086 
3420.000000	85.752681 
3419.000000	85.767338 
3418.000000	85.781452 
3417.000000	85.794567 
3416.000000	85.806648 
3415.000000	85.818078 
3414.000000	85.829468 
3413.000000	85.841452 
3412.000000	85.854450 
3411.000000	85.868396 
3410.000000	85.882738 
3409.000000	85.896830 
3408.000000	85.910398 
3407.000000	85.923631 
3406.000000	85.936927 
3405.000000	85.950582 
3404.000000	85.964601 
3403.000000	85.978668 
3402.000000	85.992373 
3401.000000	86.005621 
3400.000000	86.018727 
3399.000000	86.032000 
3398.000000	86.045327 
3397.000000	86.058434 
3396.000000	86.071533 
3395.000000	86.085411 
3394.000000	86.100660 
3393.000000	86.116924 
3392.000000	86.133107 
3391.000000	86.148386 
3390.000000	86.162900 
3389.000000	86.177457 
3388.000000	86.192692 
3387.000000	86.208614 
3386.000000	86.224858 
3385.000000	86.241142 
3384.000000	86.257401 
3383.000000	86.273617 
3382.000000	86.289703 
3381.000000	86.305512 
3380.000000	86.320833 
3379.000000	86.335452 
3378.000000	86.349420 
3377.000000	86.363340 
3376.000000	86.378152 
3375.000000	86.394417 
3374.000000	86.411830 
3373.000000	86.429459 
3372.000000	86.446417 
3371.000000	86.462348 
3370.000000	86.477520 
3369.000000	86.492627 
3368.000000	86.508300 
3367.000000	86.524514 
3366.000000	86.540518 
3365.000000	86.555589 
3364.000000	86.569907 
3363.000000	86.584467 
3362.000000	86.600047 
3361.000000	86.616457 
3360.000000	86.632951 
3359.000000	86.649163 
3358.000000	86.665377 
3357.000000	86.681929 
3356.000000	86.698646 
3355.000000	86.714998 
3354.000000	86.730699 
3353.000000	86.746037 
3352.000000	86.761651 
3351.000000	86.778053 
3350.000000	86.795284 
3349.000000	86.812906 
3348.000000	86.830317 
3347.000000	86.847163 
3346.000000	86.863525 
3345.000000	86.879719 
3344.000000	86.895978 
3343.000000	86.912310 
3342.000000	86.928530 
3341.000000	86.944330 
3340.000000	86.959386 
3339.000000	86.973682 
3338.000000	86.987812 
3337.000000	87.002767 
3336.000000	87.019162 
3335.000000	87.036649 
3334.000000	87.054219 
3333.000000	87.071058 
3332.000000	87.087047 
3331.000000	87.102534 
3330.000000	87.117873 
3329.000000	87.133270 
3328.000000	87.148861 
3327.000000	87.164694 
3326.000000	87.180623 
3325.000000	87.196387 
3324.000000	87.211834 
3323.000000	87.227004 
3322.000000	87.241948 
3321.000000	87.256612 
3320.000000	87.270995 
3319.000000	87.285369 
3318.000000	87.300153 
3317.000000	87.315479 
3316.000000	87.330937 
3315.000000	87.345871 
3314.000000	87.359962 
3313.000000	87.373521 
3312.000000	87.387215 
3311.000000	87.401506 
3310.000000	87.416295 
3309.000000	87.430993 
3308.000000	87.444934 
3307.000000	87.457793 
3306.000000	87.469742 
3305.000000	87.481247 
3304.000000	87.492718 
3303.000000	87.504339 
3302.000000	87.516149 
3301.000000	87.528172 
3300.000000	87.540374 
3299.000000	87.552553 
3298.000000	87.564379 
3297.000000	87.575655 
3296.000000	87.586528 
3295.000000	87.597388 
3294.000000	87.608539 
3293.000000	87.620018 
3292.000000	87.631702 
3291.000000	87.643462 
3290.000000	87.655086 
3289.000000	87.666197 
3288.000000	87.676522 
3287.000000	87.686302 
3286.000000	87.696178 
3285.000000	87.706475 
3284.000000	87.716773 
3283.000000	87.726412 
3282.000000	87.735346 
3281.000000	87.744261 
3280.000000	87.753812 
3279.000000	87.763923 
3278.000000	87.773842 
3277.000000	87.782754 
3276.000000	87.790361 
3275.000000	87.797130 
3274.000000	87.804000 
3273.000000	87.811632 
3272.000000	87.819790 
3271.000000	87.827541 
3270.000000	87.834093 
3269.000000	87.839354 
3268.000000	87.843771 
3267.000000	87.847935 
3266.000000	87.852388 
3265.000000	87.857452 
3264.000000	87.862947 
3263.000000	87.868269 
3262.000000	87.873033 
3261.000000	87.877553 
3260.000000	87.882424 
3259.000000	87.887687 
3258.000000	87.892703 
3257.000000	87.896906 
3256.000000	87.900472 
3255.000000	87.904130 
3254.000000	87.908401 
3253.000000	87.913093 
3252.000000	87.917504 
3251.000000	87.921098 
3250.000000	87.924010 
3249.000000	87.926911 
3248.000000	87.930323 
3247.000000	87.934071 
3246.000000	87.937390 
3245.000000	87.939579 
3244.000000	87.940608 
3243.000000	87.941178 
3242.000000	87.942221 
3241.000000	87.944243 
3240.000000	87.947071 
3239.000000	87.950206 
3238.000000	87.953362 
3237.000000	87.956592 
3236.000000	87.959972 
3235.000000	87.963406 
3234.000000	87.966713 
3233.000000	87.969687 
3232.000000	87.971999 
3231.000000	87.973352 
3230.000000	87.973939 
3229.000000	87.974591 
3228.000000	87.976205 
3227.000000	87.979052 
3226.000000	87.982744 
3225.000000	87.986720 
3224.000000	87.990630 
3223.000000	87.994404 
3222.000000	87.998219 
3221.000000	88.002348 
3220.000000	88.006835 
3219.000000	88.011330 
3218.000000	88.015460 
3217.000000	88.019349 
3216.000000	88.023562 
3215.000000	88.028507 
3214.000000	88.034049 
3213.000000	88.039771 
3212.000000	88.045442 
3211.000000	88.051111 
3210.000000	88.056822 
3209.000000	88.062371 
3208.000000	88.067461 
3207.000000	88.072141 
3206.000000	88.077010 
3205.000000	88.082818 
3204.000000	88.089755 
3203.000000	88.097251 
3202.000000	88.104544 
3201.000000	88.111364 
3200.000000	88.117931 
3199.000000	88.124490 
3198.000000	88.131096 
3197.000000	88.137804 
3196.000000	88.144748 
3195.000000	88.151975 
3194.000000	88.159370 
3193.000000	88.166834 
3192.000000	88.174379 
3191.000000	88.181950 
3190.000000	88.189340 
3189.000000	88.196436 
